,Termometro Last (mV),riscaldatore Last (V)
1622551166,1594.113,-0.001
1622551167,1594.134,-0.001
1622551168,1594.165,-0.001
1622551169,1594.193,-0.001
1622551170,1594.220,-0.001
1622551171,1594.254,-0.001
1622551172,1594.270,-0.001
1622551173,1594.300,-0.001
1622551174,1594.328,-0.001
1622551175,1594.349,-0.001
1622551176,1594.372,-0.001
1622551177,1594.395,-0.001
1622551178,1594.422,-0.001
1622551179,1594.443,-0.001
1622551180,1594.466,-0.001
1622551181,1594.492,-0.001
1622551182,1594.510,-0.001
1622551183,1594.530,-0.001
1622551184,1594.556,-0.001
1622551185,1594.572,-0.001
1622551186,1594.604,-0.001
1622551187,1594.613,-0.001
1622551188,1594.638,-0.001
1622551189,1594.657,-0.001
1622551190,1594.673,-0.001
1622551191,1594.697,-0.001
1622551192,1594.715,-0.001
1622551193,1594.735,-0.001
1622551194,1594.751,-0.001
1622551195,1594.767,-0.001
1622551196,1594.787,-0.001
1622551197,1594.806,-0.001
1622551198,1594.820,-0.001
1622551199,1594.840,-0.001
1622551200,1594.857,-0.001
1622551201,1594.877,-0.001
1622551202,1594.891,-0.001
1622551203,1594.905,-0.001
1622551204,1594.926,-0.001
1622551205,1594.939,-0.001
1622551206,1594.954,-0.001
1622551207,1594.972,-0.001
1622551208,1594.987,-0.001
1622551209,1595.002,-0.001
1622551210,1595.014,-0.001
1622551211,1595.033,-0.001
1622551212,1595.042,-0.001
1622551213,1595.054,-0.001
1622551214,1595.073,-0.001
1622551215,1595.083,-0.001
1622551216,1595.100,-0.001
1622551217,1595.108,-0.001
1622551218,1595.119,-0.001
1622551219,1595.137,-0.001
1622551220,1595.147,0.179
1622551221,1595.006,0.179
1622551222,1594.839,0.179
1622551223,1594.699,0.179
1622551224,1594.574,0.179
1622551225,1594.462,0.179
1622551226,1594.347,0.179
1622551227,1594.249,0.179
1622551228,1594.160,0.179
1622551229,1594.066,0.179
1622551230,1593.987,0.179
1622551231,1593.907,0.179
1622551232,1593.842,0.179
1622551233,1593.763,0.179
1622551234,1593.700,0.179
1622551235,1593.634,0.179
1622551236,1593.576,0.179
1622551237,1593.513,0.179
1622551238,1593.455,0.179
1622551239,1593.405,0.179
1622551240,1593.357,0.179
1622551241,1593.296,0.179
1622551242,1593.248,0.179
1622551243,1593.203,0.179
1622551244,1593.152,0.179
1622551245,1593.102,0.179
1622551246,1593.059,0.179
1622551247,1593.016,0.179
1622551248,1592.972,0.179
1622551249,1592.929,0.179
1622551250,1592.897,0.179
1622551251,1592.850,0.179
1622551252,1592.809,0.179
1622551253,1592.775,0.179
1622551254,1592.740,0.179
1622551255,1592.705,0.179
1622551256,1592.667,0.179
1622551257,1592.634,0.179
1622551258,1592.603,0.179
1622551259,1592.569,0.179
1622551260,1592.535,0.179
1622551261,1592.501,0.179
1622551262,1592.470,0.179
1622551263,1592.438,0.179
1622551264,1592.407,0.179
1622551265,1592.376,0.179
1622551266,1592.344,0.179
1622551267,1592.316,0.179
1622551268,1592.286,0.179
1622551269,1592.257,0.179
1622551270,1592.231,0.179
1622551271,1592.203,0.179
1622551272,1592.179,0.179
1622551273,1592.153,0.179
1622551274,1592.128,0.179
1622551275,1592.105,0.179
1622551276,1592.076,0.179
1622551277,1592.054,0.179
1622551278,1592.028,0.179
1622551279,1592.006,0.179
1622551280,1591.985,0.179
1622551281,1591.963,0.179
1622551282,1591.938,0.179
1622551283,1591.915,0.179
1622551284,1591.900,0.179
1622551285,1591.879,0.179
1622551286,1591.853,0.179
1622551287,1591.834,0.179
1622551288,1591.813,0.179
1622551289,1591.797,0.179
1622551290,1591.776,0.179
1622551291,1591.756,0.179
1622551292,1591.735,0.179
1622551293,1591.719,0.179
1622551294,1591.697,0.179
1622551295,1591.680,0.179
1622551296,1591.662,0.179
1622551297,1591.642,0.179
1622551298,1591.628,0.179
1622551299,1591.608,0.179
1622551300,1591.594,0.179
1622551301,1591.571,0.179
1622551302,1591.561,0.179
1622551303,1591.540,0.179
1622551304,1591.522,0.179
1622551305,1591.509,0.179
1622551306,1591.491,0.179
1622551307,1591.478,0.179
1622551308,1591.464,0.179
1622551309,1591.448,0.179
1622551310,1591.438,0.179
1622551311,1591.420,0.179
1622551312,1591.407,0.179
1622551313,1591.395,0.179
1622551314,1591.380,0.179
1622551315,1591.367,0.179
1622551316,1591.352,0.179
1622551317,1591.335,0.179
1622551318,1591.326,0.179
1622551319,1591.308,0.179
1622551320,1591.304,-0.001
1622551321,1591.437,-0.001
1622551322,1591.577,-0.001
1622551323,1591.716,-0.001
1622551324,1591.845,-0.001
1622551325,1591.957,-0.001
1622551326,1592.055,-0.001
1622551327,1592.144,-0.001
1622551328,1592.250,-0.001
1622551329,1592.325,-0.001
1622551330,1592.409,-0.001
1622551331,1592.491,-0.001
1622551332,1592.557,-0.001
1622551333,1592.630,-0.001
1622551334,1592.693,-0.001
1622551335,1592.769,-0.001
1622551336,1592.824,-0.001
1622551337,1592.877,-0.001
1622551338,1592.940,-0.001
1622551339,1592.990,-0.001
1622551340,1593.045,-0.001
1622551341,1593.101,-0.001
1622551342,1593.141,-0.001
1622551343,1593.204,-0.001
1622551344,1593.242,-0.001
1622551345,1593.286,-0.001
1622551346,1593.345,-0.001
1622551347,1593.377,-0.001
1622551348,1593.431,-0.001
1622551349,1593.461,-0.001
1622551350,1593.507,-0.001
1622551351,1593.555,-0.001
1622551352,1593.581,-0.001
1622551353,1593.627,-0.001
1622551354,1593.660,-0.001
1622551355,1593.705,-0.001
1622551356,1593.742,-0.001
1622551357,1593.763,-0.001
1622551358,1593.817,-0.001
1622551359,1593.839,-0.001
1622551360,1593.878,-0.001
1622551361,1593.913,-0.001
1622551362,1593.936,-0.001
1622551363,1593.977,-0.001
1622551364,1593.998,-0.001
1622551365,1594.036,-0.001
1622551366,1594.070,-0.001
1622551367,1594.088,-0.001
1622551368,1594.125,-0.001
1622551369,1594.144,-0.001
1622551370,1594.175,-0.001
1622551371,1594.201,-0.001
1622551372,1594.223,-0.001
1622551373,1594.255,-0.001
1622551374,1594.278,0.000
1622551375,1594.306,0.000
1622551376,1594.324,0.000
1622551377,1594.350,0.000
1622551378,1594.375,0.000
1622551379,1594.392,0.000
1622551380,1594.421,0.000
1622551381,1594.441,0.000
1622551382,1594.461,0.000
1622551383,1594.482,0.000
1622551384,1594.504,0.000
1622551385,1594.525,0.000
1622551386,1594.544,0.000
1622551387,1594.571,0.000
1622551388,1594.586,0.000
1622551389,1594.602,0.000
1622551390,1594.620,0.000
1622551391,1594.638,0.000
1622551392,1594.656,0.000
1622551393,1594.679,0.000
1622551394,1594.694,0.000
1622551395,1594.712,0.000
1622551396,1594.734,0.000
1622551397,1594.748,0.000
1622551398,1594.762,0.000
1622551399,1594.774,0.000
1622551400,1594.793,0.000
1622551401,1594.813,0.000
1622551402,1594.822,0.000
1622551403,1594.846,0.000
1622551404,1594.857,0.000
1622551405,1594.875,0.000
1622551406,1594.887,0.000
1622551407,1594.903,0.000
1622551408,1594.921,0.000
1622551409,1594.935,0.000
1622551410,1594.945,0.000
1622551411,1594.961,0.000
1622551412,1594.976,0.000
1622551413,1594.993,0.000
1622551414,1595.005,0.000
1622551415,1595.016,0.000
1622551416,1595.032,0.000
1622551417,1595.046,0.000
1622551418,1595.058,0.000
1622551419,1595.075,0.000
1622551420,1595.086,0.000
1622551421,1595.100,0.000
1622551422,1595.110,0.000
1622551423,1595.123,0.000
1622551424,1595.140,0.000
1622551425,1595.154,0.000
1622551426,1595.153,0.000
1622551427,1595.172,0.000
1622551428,1595.176,0.000
1622551429,1595.189,0.000
1622551430,1595.204,0.000
1622551431,1595.207,0.000
1622551432,1595.226,0.000
1622551433,1595.231,0.000
1622551434,1595.240,0.000
1622551435,1595.254,0.000
1622551436,1595.260,0.000
1622551437,1595.277,0.000
1622551438,1595.283,0.000
1622551439,1595.297,0.000
1622551440,1595.303,0.000
1622551441,1595.316,0.000
1622551442,1595.326,0.000
1622551443,1595.333,0.000
1622551444,1595.343,0.000
1622551445,1595.349,0.000
1622551446,1595.358,0.000
1622551447,1595.370,0.000
1622551448,1595.378,0.000
1622551449,1595.386,0.000
1622551450,1595.397,0.000
1622551451,1595.408,0.000
1622551452,1595.415,0.000
1622551453,1595.423,0.000
1622551454,1595.433,0.000
1622551455,1595.438,0.000
1622551456,1595.450,0.000
1622551457,1595.452,0.000
1622551458,1595.464,0.000
1622551459,1595.472,0.000
1622551460,1595.476,0.000
1622551461,1595.484,0.000
1622551462,1595.497,0.000
1622551463,1595.502,0.000
1622551464,1595.508,0.000
1622551465,1595.515,0.000
1622551466,1595.521,0.000
1622551467,1595.527,0.000
1622551468,1595.531,0.000
1622551469,1595.538,0.000
1622551470,1595.542,0.000
1622551471,1595.549,0.000
1622551472,1595.563,0.000
1622551473,1595.564,0.000
1622551474,1595.571,0.000
1622551475,1595.575,0.000
1622551476,1595.587,0.000
1622551477,1595.590,0.000
1622551478,1595.599,0.000
1622551479,1595.606,0.000
1622551480,1595.611,0.000
1622551481,1595.616,0.000
1622551482,1595.620,0.000
1622551483,1595.626,0.000
1622551484,1595.631,0.000
1622551485,1595.643,0.000
1622551486,1595.644,0.000
1622551487,1595.651,0.000
1622551488,1595.658,0.000
1622551489,1595.661,0.000
1622551490,1595.668,0.000
1622551491,1595.670,0.000
1622551492,1595.674,0.000
1622551493,1595.683,0.000
1622551494,1595.688,0.000
1622551495,1595.694,0.000
1622551496,1595.699,0.000
1622551497,1595.703,0.000
1622551498,1595.708,0.000
1622551499,1595.710,0.000
1622551500,1595.719,0.000
1622551501,1595.721,0.000
1622551502,1595.729,0.000
1622551503,1595.737,0.000
1622551504,1595.738,0.000
1622551505,1595.740,0.000
1622551506,1595.742,0.000
1622551507,1595.747,0.000
1622551508,1595.757,0.000
1622551509,1595.757,0.000
1622551510,1595.758,0.000
1622551511,1595.767,0.000
1622551512,1595.764,0.000
1622551513,1595.774,0.000
1622551514,1595.782,0.000
1622551515,1595.783,0.000
1622551516,1595.784,0.000
1622551517,1595.793,0.000
1622551518,1595.796,0.000
1622551519,1595.794,0.000
1622551520,1595.803,0.000
1622551521,1595.803,0.000
1622551522,1595.811,0.000
1622551523,1595.814,0.000
1622551524,1595.814,0.000
1622551525,1595.814,0.000
1622551526,1595.821,0.000
1622551527,1595.828,0.000
1622551528,1595.828,0.000
1622551529,1595.830,0.000
1622551530,1595.833,0.000
1622551531,1595.845,0.000
1622551532,1595.840,0.000
1622551533,1595.849,0.000
1622551534,1595.850,0.000
1622551535,1595.856,0.000
1622551536,1595.856,0.000
1622551537,1595.857,0.000
1622551538,1595.862,0.000
1622551539,1595.865,0.000
1622551540,1595.868,0.000
1622551541,1595.872,0.000
1622551542,1595.878,0.000
1622551543,1595.882,0.000
1622551544,1595.886,0.000
1622551545,1595.886,0.000
1622551546,1595.896,0.000
1622551547,1595.896,0.000
1622551548,1595.898,0.000
1622551549,1595.902,0.000
1622551550,1595.899,0.000
1622551551,1595.907,0.000
1622551552,1595.908,0.000
1622551553,1595.912,0.000
1622551554,1595.917,0.000
1622551555,1595.917,0.000
1622551556,1595.923,0.000
1622551557,1595.923,0.000
1622551558,1595.922,0.000
1622551559,1595.929,0.000
1622551560,1595.927,0.000
1622551561,1595.931,0.000
1622551562,1595.935,0.000
1622551563,1595.931,0.000
1622551564,1595.940,0.000
1622551565,1595.936,0.000
1622551566,1595.944,0.000
1622551567,1595.947,0.000
1622551568,1595.946,0.000
1622551569,1595.949,0.000
1622551570,1595.950,0.000
1622551571,1595.951,0.000
1622551572,1595.957,0.000
1622551573,1595.955,0.000
1622551574,1595.960,0.000
1622551575,1595.962,0.000
1622551576,1595.961,0.000
1622551577,1595.968,0.000
1622551578,1595.967,0.000
1622551579,1595.967,0.000
1622551580,1595.972,0.000
1622551581,1595.970,0.000
1622551582,1595.978,0.000
1622551583,1595.982,0.000
1622551584,1595.976,0.000
1622551585,1595.979,0.000
1622551586,1595.984,0.000
1622551587,1595.980,0.000
1622551588,1595.988,0.000
1622551589,1595.991,0.000
1622551590,1595.990,0.000
1622551591,1595.991,0.000
1622551592,1595.992,0.000
1622551593,1595.996,0.000
1622551594,1595.996,0.000
1622551595,1595.996,0.000
1622551596,1596.003,0.000
1622551597,1596.002,0.000
1622551598,1596.004,0.000
1622551599,1596.006,0.000
1622551600,1596.005,0.000
1622551601,1596.010,0.000
1622551602,1596.010,0.000
1622551603,1596.013,0.000
1622551604,1596.008,0.000
1622551605,1596.017,0.000
1622551606,1596.018,0.000
1622551607,1596.015,0.000
1622551608,1596.018,0.000
1622551609,1596.018,0.000
1622551610,1596.021,0.000
1622551611,1596.022,0.000
1622551612,1596.026,0.000
1622551613,1596.026,0.000
1622551614,1596.026,0.000
1622551615,1596.030,0.000
1622551616,1596.034,0.000
1622551617,1596.031,0.000
1622551618,1596.035,0.000
1622551619,1596.037,0.000
1622551620,1596.037,0.000
1622551621,1596.040,0.000
1622551622,1596.037,0.000
1622551623,1596.041,0.000
1622551624,1596.041,0.000
1622551625,1596.047,0.000
1622551626,1596.044,0.000
1622551627,1596.043,0.000
1622551628,1596.046,0.000
1622551629,1596.046,0.000
1622551630,1596.047,0.000
1622551631,1596.048,0.000
1622551632,1596.050,0.000
1622551633,1596.055,0.000
1622551634,1596.051,0.000
1622551635,1596.054,0.000
1622551636,1596.054,0.000
1622551637,1596.054,0.000
1622551638,1596.055,0.000
1622551639,1596.056,0.000
1622551640,1596.061,0.000
1622551641,1596.060,0.000
1622551642,1596.064,0.000
1622551643,1596.065,0.000
1622551644,1596.066,0.000
1622551645,1596.066,0.000
1622551646,1596.063,0.000
1622551647,1596.062,0.000
1622551648,1596.067,0.000
1622551649,1596.069,0.000
1622551650,1596.071,0.000
1622551651,1596.066,0.000
1622551652,1596.068,0.000
1622551653,1596.067,0.000
1622551654,1596.068,0.000
1622551655,1596.073,0.000
1622551656,1596.070,0.000
1622551657,1596.072,0.000
1622551658,1596.073,0.000
1622551659,1596.072,0.000
1622551660,1596.071,0.000
1622551661,1596.069,0.000
1622551662,1596.073,0.000
1622551663,1596.073,0.000
1622551664,1596.072,0.000
1622551665,1596.073,0.000
1622551666,1596.074,0.000
1622551667,1596.072,0.000
1622551668,1596.076,0.000
1622551669,1596.076,0.000
1622551670,1596.076,0.000
1622551671,1596.076,0.000
1622551672,1596.077,0.000
1622551673,1596.077,0.000
1622551674,1596.074,0.000
1622551675,1596.079,0.000
1622551676,1596.080,0.000
1622551677,1596.081,0.000
1622551678,1596.078,0.000
1622551679,1596.079,0.000
1622551680,1596.083,0.000
1622551681,1596.081,0.000
1622551682,1596.086,0.000
1622551683,1596.082,0.000
1622551684,1596.080,0.000
1622551685,1596.086,0.000
1622551686,1596.085,0.000
1622551687,1596.088,0.000
1622551688,1596.084,0.000
1622551689,1596.085,0.000
1622551690,1596.083,0.000
1622551691,1596.087,0.000
1622551692,1596.087,0.000
1622551693,1596.088,0.000
1622551694,1596.089,0.000
1622551695,1596.091,0.000
1622551696,1596.088,0.000
1622551697,1596.094,0.000
1622551698,1596.090,0.000
1622551699,1596.091,0.000
1622551700,1596.097,0.000
1622551701,1596.090,0.000
1622551702,1596.095,0.000
1622551703,1596.095,0.000
1622551704,1596.095,0.000
1622551705,1596.097,0.000
1622551706,1596.093,0.000
1622551707,1596.097,0.000
1622551708,1596.099,0.000
1622551709,1596.097,0.000
1622551710,1596.094,0.000
1622551711,1596.097,0.000
1622551712,1596.098,0.000
1622551713,1596.100,0.000
1622551714,1596.098,0.000
1622551715,1596.101,0.000
1622551716,1596.095,0.000
1622551717,1596.099,0.000
1622551718,1596.099,0.000
1622551719,1596.099,0.000
1622551720,1596.103,0.000
1622551721,1596.097,0.000
1622551722,1596.098,0.000
1622551723,1596.099,0.000
1622551724,1596.098,0.000
1622551725,1596.100,0.000
1622551726,1596.100,0.000
1622551727,1596.099,0.000
1622551728,1596.103,0.000
1622551729,1596.100,0.000
1622551730,1596.102,0.000
1622551731,1596.101,0.000
1622551732,1596.104,0.000
1622551733,1596.098,0.000
1622551734,1596.098,0.000
1622551735,1596.105,0.000
1622551736,1596.102,0.000
1622551737,1596.102,0.000
1622551738,1596.100,0.000
1622551739,1596.100,0.000
1622551740,1596.101,0.000
1622551741,1596.101,0.000
1622551742,1596.104,0.000
1622551743,1596.102,0.000
1622551744,1596.102,0.000
1622551745,1596.103,0.000
1622551746,1596.105,0.000
1622551747,1596.103,0.000
1622551748,1596.103,0.000
1622551749,1596.108,0.000
1622551750,1596.108,0.000
1622551751,1596.106,0.000
1622551752,1596.107,0.000
1622551753,1596.109,0.000
1622551754,1596.109,0.000
1622551755,1596.109,0.000
1622551756,1596.109,0.000
1622551757,1596.112,0.000
1622551758,1596.112,0.000
1622551759,1596.113,0.000
1622551760,1596.112,0.000
1622551761,1596.117,0.000
1622551762,1596.114,0.000
1622551763,1596.117,0.000
1622551764,1596.121,0.000
1622551765,1596.117,0.000
1622551766,1596.122,0.000
1622551767,1596.120,0.000
1622551768,1596.119,0.000
1622551769,1596.117,0.000
1622551770,1596.114,0.000
1622551771,1596.118,0.000
1622551772,1596.122,0.000
1622551773,1596.117,0.000
1622551774,1596.120,0.000
1622551775,1596.120,0.000
1622551776,1596.115,0.000
1622551777,1596.122,0.000
1622551778,1596.117,0.000
1622551779,1596.123,0.000
1622551780,1596.121,0.000
1622551781,1596.116,0.000
1622551782,1596.117,0.000
1622551783,1596.119,0.000
1622551784,1596.124,0.000
1622551785,1596.124,0.000
1622551786,1596.123,0.000
1622551787,1596.117,0.000
1622551788,1596.122,0.000
1622551789,1596.121,0.000
1622551790,1596.121,0.000
1622551791,1596.121,0.000
1622551792,1596.122,0.000
1622551793,1596.119,0.000
1622551794,1596.120,0.000
1622551795,1596.117,0.000
1622551796,1596.118,0.000
1622551797,1596.120,0.000
1622551798,1596.120,0.000
1622551799,1596.115,0.000
1622551800,1596.122,0.000
1622551801,1596.120,0.000
1622551802,1596.116,0.000
1622551803,1596.115,0.000
1622551804,1596.112,0.000
1622551805,1596.119,0.000
1622551806,1596.120,0.000
1622551807,1596.118,0.000
1622551808,1596.117,0.000
1622551809,1596.114,0.000
1622551810,1596.123,0.000
1622551811,1596.118,0.000
1622551812,1596.120,0.000
1622551813,1596.119,0.000
1622551814,1596.122,0.000
1622551815,1596.117,0.000
1622551816,1596.116,0.000
1622551817,1596.113,0.000
1622551818,1596.114,0.000
1622551819,1596.114,0.000
1622551820,1596.116,0.000
1622551821,1596.115,0.000
1622551822,1596.119,0.000
1622551823,1596.112,0.000
1622551824,1596.114,0.000
1622551825,1596.118,0.000
1622551826,1596.114,0.000
1622551827,1596.115,0.000
1622551828,1596.119,0.000
1622551829,1596.120,0.000
1622551830,1596.120,0.000
1622551831,1596.117,0.000
1622551832,1596.120,0.000
1622551833,1596.120,0.000
1622551834,1596.119,0.000
1622551835,1596.122,0.000
1622551836,1596.120,0.000
1622551837,1596.119,0.000
1622551838,1596.121,0.000
1622551839,1596.124,0.000
1622551840,1596.123,0.000
1622551841,1596.126,0.000
1622551842,1596.125,0.000
1622551843,1596.121,0.000
1622551844,1596.123,0.000
1622551845,1596.123,0.000
1622551846,1596.124,0.000
1622551847,1596.125,0.000
1622551848,1596.123,0.000
1622551849,1596.122,0.000
1622551850,1596.122,0.000
1622551851,1596.122,0.000
1622551852,1596.128,0.000
1622551853,1596.126,0.000
1622551854,1596.125,0.000
1622551855,1596.126,0.000
1622551856,1596.123,0.000
1622551857,1596.123,0.000
1622551858,1596.126,0.000
1622551859,1596.124,0.000
1622551860,1596.123,0.000
1622551861,1596.129,0.000
1622551862,1596.127,0.000
1622551863,1596.128,0.000
1622551864,1596.128,0.000
1622551865,1596.126,0.000
1622551866,1596.132,0.000
1622551867,1596.129,0.000
1622551868,1596.129,0.000
1622551869,1596.135,0.000
1622551870,1596.125,0.000
1622551871,1596.131,0.000
1622551872,1596.131,0.000
1622551873,1596.134,0.000
1622551874,1596.131,0.000
1622551875,1596.133,0.000
1622551876,1596.131,0.000
1622551877,1596.130,0.000
1622551878,1596.133,0.000
1622551879,1596.128,0.000
1622551880,1596.128,0.000
1622551881,1596.131,0.000
1622551882,1596.133,0.000
1622551883,1596.131,0.000
1622551884,1596.131,0.000
1622551885,1596.132,0.000
1622551886,1596.134,0.000
1622551887,1596.129,0.000
1622551888,1596.132,0.000
1622551889,1596.136,0.000
1622551890,1596.135,0.000
1622551891,1596.134,0.000
1622551892,1596.132,0.000
1622551893,1596.137,0.000
1622551894,1596.139,0.000
1622551895,1596.134,0.000
1622551896,1596.134,0.000
1622551897,1596.136,0.000
1622551898,1596.138,0.000
1622551899,1596.134,0.000
1622551900,1596.132,0.000
1622551901,1596.134,0.000
1622551902,1596.130,0.000
1622551903,1596.134,0.000
1622551904,1596.132,0.000
1622551905,1596.133,0.000
1622551906,1596.135,0.000
1622551907,1596.131,0.000
1622551908,1596.134,0.000
1622551909,1596.134,0.000
1622551910,1596.130,0.000
1622551911,1596.127,0.000
1622551912,1596.129,0.000
1622551913,1596.132,0.000
1622551914,1596.133,0.000
1622551915,1596.129,0.000
1622551916,1596.136,0.000
1622551917,1596.130,0.000
1622551918,1596.128,0.000
1622551919,1596.129,0.000
1622551920,1596.131,0.000
1622551921,1596.131,0.000
1622551922,1596.131,0.000
1622551923,1596.132,0.000
1622551924,1596.130,0.000
1622551925,1596.129,0.000
1622551926,1596.128,0.000
1622551927,1596.132,0.000
1622551928,1596.134,0.000
